---Stopping/Range Input Data (Number-format: Period = Decimal Point)
---Output File Name,here arbitrary
"sr.out"
---Ion(Z), Ion Mass(u)
3 7.016
---Target Data: (Solid=0,Gas=1), Density(g/cm3), Compound Corr.
0 1 0
---Number of Target Elements
1
---Target Elements: (Z), Target name, Stoich, Target Mass(u)
6 "X" 1 12.011
---Output Stopping Units (1-8)
7
---Ion Energy : E-Min(keV), E-Max(keV)
0 0
0.0101
0.010302
0.010508
0.0107182
0.0109326
0.0111512
0.0113742
0.0116017
0.0118338
0.0120704
0.0123118
0.0125581
0.0128092
0.0130654
0.0133267
0.0135933
0.0138651
0.0141424
0.0144253
0.0147138
0.0150081
0.0153082
0.0156144
0.0159267
0.0162452
0.0165701
0.0169015
0.0172396
0.0175843
0.017936
0.0182948
0.0186606
0.0190339
0.0194145
0.0198028
0.0201989
0.0206029
0.0210149
0.0214352
0.0218639
0.0223012
0.0227472
0.0232022
0.0236662
0.0241395
0.0246223
0.0251148
0.0256171
0.0261294
0.026652
0.027185
0.0277287
0.0282833
0.028849
0.029426
0.0300145
0.0306148
0.0312271
0.0318516
0.0324886
0.0331384
0.0338012
0.0344772
0.0351667
0.0358701
0.0365875
0.0373192
0.0380656
0.0388269
0.0396035
0.0403955
0.0412034
0.0420275
0.0428681
0.0437254
0.0445999
0.0454919
0.0464018
0.0473298
0.0482764
0.0492419
0.0502268
0.0512313
0.0522559
0.0533011
0.0543671
0.0554544
0.0565635
0.0576948
0.0588487
0.0600256
0.0612262
0.0624507
0.0636997
0.0649737
0.0662732
0.0675986
0.0689506
0.0703296
0.0717362
0.0731709
0.0746343
0.076127
0.0776496
0.0792026
0.0807866
0.0824023
0.0840504
0.0857314
0.087446
0.089195
0.0909788
0.0927984
0.0946544
0.0965475
0.0984784
0.100448
0.102457
0.104506
0.106596
0.108728
0.110903
0.113121
0.115383
0.117691
0.120045
0.122446
0.124894
0.127392
0.12994
0.132539
0.13519
0.137894
0.140651
0.143464
0.146334
0.14926
0.152246
0.155291
0.158396
0.161564
0.164796
0.168092
0.171453
0.174882
0.17838
0.181948
0.185587
0.189298
0.193084
0.196946
0.200885
0.204903
0.209001
0.213181
0.217444
0.221793
0.226229
0.230754
0.235369
0.240076
0.244878
0.249775
0.254771
0.259866
0.265063
0.270365
0.275772
0.281287
0.286913
0.292651
0.298504
0.304474
0.310564
0.316775
0.323111
0.329573
0.336164
0.342888
0.349745
0.35674
0.363875
0.371153
0.378576
0.386147
0.39387
0.401748
0.409783
0.417978
0.426338
0.434865
0.443562
0.452433
0.461482
0.470711
0.480126
0.489728
0.499523
0.509513
0.519703
0.530097
0.540699
0.551513
0.562544
0.573795
0.58527
0.596976
0.608915
0.621094
0.633516
0.646186
0.65911
0.672292
0.685738
0.699452
0.713441
0.72771
0.742264
0.75711
0.772252
0.787697
0.803451
0.81952
0.83591
0.852629
0.869681
0.887075
0.904816
0.922913
0.941371
0.960198
0.979402
0.99899
1.01897
1.03935
1.06014
1.08134
1.10297
1.12503
1.14753
1.17048
1.19389
1.21776
1.24212
1.26696
1.2923
1.31815
1.34451
1.3714
1.39883
1.4268
1.45534
1.48445
1.51414
1.54442
1.57531
1.60681
1.63895
1.67173
1.70516
1.73927
1.77405
1.80953
1.84572
1.88264
1.92029
1.9587
1.99787
2.03783
2.07858
2.12016
2.16256
2.20581
2.24993
2.29492
2.34082
2.38764
2.43539
2.4841
2.53378
2.58446
2.63615
2.68887
2.74265
2.7975
2.85345
2.91052
2.96873
3.0281
3.08867
3.15044
3.21345
3.27772
3.34327
3.41014
3.47834
3.54791
3.61887
3.69124
3.76507
3.84037
3.91718
3.99552
4.07543
4.15694
4.24008
4.32488
4.41138
4.4996
4.5896
4.68139
4.77502
4.87052
4.96793
5.06728
5.16863
5.272
5.37744
5.48499
5.59469
5.70659
5.82072
5.93713
6.05587
6.17699
6.30053
6.42654
6.55507
6.68617
6.8199
6.9563
7.09542
7.23733
7.38208
7.52972
7.68031
7.83392
7.9906
8.15041
8.31342
8.47969
8.64928
8.82227
8.99871
9.17868
9.36226
9.5495
9.74049
9.9353
10.134
10.3367
10.5434
10.7543
10.9694
11.1888
11.4125
11.6408
11.8736
12.1111
12.3533
12.6004
12.8524
13.1094
13.3716
13.639
13.9118
14.1901
14.4739
14.7633
15.0586
15.3598
15.667
15.9803
16.2999
16.6259
16.9584
17.2976
17.6436
17.9964
18.3564
18.7235
19.098
19.4799
19.8695
20.2669
20.6722
21.0857
21.5074
21.9375
22.3763
22.8238
23.2803
23.7459
24.2208
24.7052
25.1993
25.7033
26.2174
26.7417
27.2766
27.8221
28.3786
28.9461
29.525
30.1155
30.7179
31.3322
31.9589
32.598
33.25
33.915
34.5933
35.2852
35.9909
36.7107
37.4449
38.1938
38.9577
39.7368
40.5316
41.3422
42.169
43.0124
43.8727
44.7501
45.6451
46.558
47.4892
48.439
49.4077
50.3959
51.4038
52.4319
53.4805
54.5501
55.6411
56.754
57.8891
59.0468
60.2278
61.4323
62.661
63.9142
65.1925
66.4963
67.8263
69.1828
70.5664
71.9778
73.4173
74.8857
76.3834
77.911
79.4693
81.0586
82.6798
84.3334
86.0201
87.7405
89.4953
91.2852
93.1109
94.9731
96.8726
98.81
100.786
102.802
104.858
106.955
109.094
111.276
113.502
115.772
118.087
120.449
122.858
125.315
127.821
130.378
132.985
135.645
138.358
141.125
143.948
146.827
149.763
152.758
155.813
158.93
162.108
165.351
168.658
172.031
175.471
178.981
182.56
186.212
189.936
193.734
197.609
201.561
205.593
209.704
213.899
218.176
222.54
226.991
231.531
236.161
240.884
245.702
250.616
255.629
260.741
265.956
271.275
276.701
282.235
287.879
293.637
299.51
305.5
311.61
317.842
324.199
330.683
337.296
344.042
350.923
357.942
365.1
372.402
379.851
387.448
395.197
403.1
411.162
419.386
427.773
436.329
445.055
453.957
463.036
472.296
481.742
491.377
501.205
511.229
521.453
531.882
542.52
553.371
564.438
575.727
587.241
598.986
610.966
623.185
635.649
648.362
661.329
674.556
688.047
701.808
715.844
730.161
744.764
759.659
774.852
790.349
806.156
822.279
838.725
855.5
872.61
890.062
907.863
926.02
944.541
963.431
982.7
1002.35
1022.4
1042.85
1063.71
1084.98
1106.68
1128.81
1151.39
1174.42
1197.91
1221.86
1246.3
1271.23
1296.65
1322.58
1349.04
1376.02
1403.54
1431.61
1460.24
1489.45
1519.23
1549.62
1580.61
1612.22
1644.47
1677.36
1710.9
1745.12
1780.03
1815.63
1851.94
1888.98
1926.76
1965.29
2004.6
2044.69
2085.58
2127.29
2169.84
2213.24
2257.5
2302.65
2348.71
2395.68
2443.59
2492.46
2542.31
2593.16
2645.02
2697.92
2751.88
2806.92
2863.06
2920.32
2978.73
3038.3
3099.07
3161.05
3224.27
3288.75
3354.53
3421.62
3490.05
3559.85
3631.05
3703.67
3777.75
3853.3
3930.37
4008.97
4089.15
4170.94
4254.35
4339.44
4426.23
4514.76
4605.05
4697.15
4791.09
4886.92
4984.65
5084.35
5186.03
5289.76
5395.55
5503.46
5613.53
5725.8
5840.32
5957.12
6076.27
6197.79
6321.75
6448.18
6577.15
6708.69
6842.86
6979.72
7119.31
7261.7
7406.93
7555.07
7706.17
7860.3
8017.5
8177.85
8341.41
8508.24
8678.4
8851.97
9029.01
9209.59
9393.78
9581.66
9773.29
9968.76
10168.1
10371.5
10578.9
10790.5
11006.3
11226.4
11451
11680
11913.6
12151.9
12394.9
12642.8
12895.7
13153.6
13416.6
13685
13958.7
14237.8
14522.6
14813.1
15109.3
15411.5
15719.7
16034.1
16354.8
16681.9
17015.5
17355.9
17703
18057
18418.2
18786.5
19162.3
19545.5
19936.4
20335.1
20741.8
21156.7
21579.8
22011.4
22451.6
22900.7
23358.7
23825.9
24302.4
24788.4
25284.2
25789.9
26305.7
26831.8
27368.4
27915.8
28474.1
29043.6
29624.5
30217
30821.3
31437.7
32066.5
32707.8
33362
34029.2
34709.8
35404
36112.1
36834.3
37571
38322.4
39088.9
39870.6
40668
41481.4
42311
43157.3
44020.4
44900.8
45798.8
46714.8
47649.1
48602.1
49574.1
50565.6
51576.9
52608.5
53660.6
54733.8
55828.5
56945.1
58084
59245.7
60430.6
61639.2
62872
64129.4
65412
66720.2
68054.6
69415.7
70804
72220.1
73664.5
75137.8
76640.6
78173.4
79736.9
81331.6
82958.2
84617.4
86309.7
88035.9
89796.7
91592.6
93424.4
95292.9
97198.8
99142.8
101126
103148
105211
107315
109462
111651
113884
116162
118485
120854
123272
125737
128252
130817
133433
136102
138824
141600
144432
147321
150267
153273
156338
159465
162654
165907
169225
172610
176062
179583
183175
186839
190575
194387
198275
0
